ALV-7004 or ALV-7004/FAST Data
Date :	"04.06.2015"
Time :	"16:03:30"
Samplename : 	""
SampMemo(0) : 	""
SampMemo(1) : 	""
SampMemo(2) : 	""
SampMemo(3) : 	""
SampMemo(4) : 	""
SampMemo(5) : 	""
SampMemo(6) : 	""
SampMemo(7) : 	""
SampMemo(8) : 	""
SampMemo(9) : 	""
Temperature [K] :	     297.93835
Viscosity [cp]  :	       0.89000
Refractive Index:	       1.33200
Wavelength [nm] :	     632.80000
Angle [°]       :	      32.50000
Duration [s]    :	        36
Runs            :	         1
Mode            :	"C-CH0/1+1/0 "
MeanCR0 [kHz]   :	     966.90088
MeanCR1 [kHz]   :	     842.12323
MeanCR2 [kHz]   :	       0.00000
MeanCR3 [kHz]   :	       0.00000

"Correlation"
  2.50000E-005	  2.72897E-001	  2.72560E-001	  0.00000E+000	  0.00000E+000
  5.00000E-005	  2.73666E-001	  2.72921E-001	  0.00000E+000	  0.00000E+000
  7.50000E-005	  2.74735E-001	  2.74575E-001	  0.00000E+000	  0.00000E+000
  1.00000E-004	  2.74000E-001	  2.73789E-001	  0.00000E+000	  0.00000E+000
  1.25000E-004	  2.72961E-001	  2.72484E-001	  0.00000E+000	  0.00000E+000
  1.50000E-004	  2.73148E-001	  2.74414E-001	  0.00000E+000	  0.00000E+000
  1.75000E-004	  2.73263E-001	  2.73345E-001	  0.00000E+000	  0.00000E+000
  2.00000E-004	  2.73285E-001	  2.73868E-001	  0.00000E+000	  0.00000E+000
  2.25000E-004	  2.73614E-001	  2.72419E-001	  0.00000E+000	  0.00000E+000
  2.50000E-004	  2.71873E-001	  2.71925E-001	  0.00000E+000	  0.00000E+000
  2.75000E-004	  2.72154E-001	  2.72190E-001	  0.00000E+000	  0.00000E+000
  3.00000E-004	  2.71497E-001	  2.71103E-001	  0.00000E+000	  0.00000E+000
  3.25000E-004	  2.72738E-001	  2.72363E-001	  0.00000E+000	  0.00000E+000
  3.50000E-004	  2.73038E-001	  2.71986E-001	  0.00000E+000	  0.00000E+000
  3.75000E-004	  2.72202E-001	  2.70843E-001	  0.00000E+000	  0.00000E+000
  4.00000E-004	  2.72618E-001	  2.71614E-001	  0.00000E+000	  0.00000E+000
  4.50000E-004	  2.73196E-001	  2.72588E-001	  0.00000E+000	  0.00000E+000
  5.00000E-004	  2.73083E-001	  2.73625E-001	  0.00000E+000	  0.00000E+000
  5.50000E-004	  2.73153E-001	  2.72682E-001	  0.00000E+000	  0.00000E+000
  6.00000E-004	  2.73487E-001	  2.73161E-001	  0.00000E+000	  0.00000E+000
  6.50000E-004	  2.73197E-001	  2.73775E-001	  0.00000E+000	  0.00000E+000
  7.00000E-004	  2.72328E-001	  2.71748E-001	  0.00000E+000	  0.00000E+000
  7.50000E-004	  2.72473E-001	  2.73250E-001	  0.00000E+000	  0.00000E+000
  8.00000E-004	  2.73002E-001	  2.72605E-001	  0.00000E+000	  0.00000E+000
  9.00000E-004	  2.72930E-001	  2.72911E-001	  0.00000E+000	  0.00000E+000
  1.00000E-003	  2.73336E-001	  2.73107E-001	  0.00000E+000	  0.00000E+000
  1.10000E-003	  2.73237E-001	  2.73508E-001	  0.00000E+000	  0.00000E+000
  1.20000E-003	  2.72815E-001	  2.72547E-001	  0.00000E+000	  0.00000E+000
  1.30000E-003	  2.72829E-001	  2.73077E-001	  0.00000E+000	  0.00000E+000
  1.40000E-003	  2.72316E-001	  2.72661E-001	  0.00000E+000	  0.00000E+000
  1.50000E-003	  2.73149E-001	  2.74072E-001	  0.00000E+000	  0.00000E+000
  1.60000E-003	  2.73163E-001	  2.73311E-001	  0.00000E+000	  0.00000E+000
  1.80000E-003	  2.72906E-001	  2.73114E-001	  0.00000E+000	  0.00000E+000
  2.00000E-003	  2.72898E-001	  2.72901E-001	  0.00000E+000	  0.00000E+000
  2.20000E-003	  2.72821E-001	  2.73029E-001	  0.00000E+000	  0.00000E+000
  2.40000E-003	  2.73391E-001	  2.73285E-001	  0.00000E+000	  0.00000E+000
  2.60000E-003	  2.73393E-001	  2.73880E-001	  0.00000E+000	  0.00000E+000
  2.80000E-003	  2.72435E-001	  2.72539E-001	  0.00000E+000	  0.00000E+000
  3.00000E-003	  2.73215E-001	  2.73526E-001	  0.00000E+000	  0.00000E+000
  3.20000E-003	  2.72894E-001	  2.73150E-001	  0.00000E+000	  0.00000E+000
  3.60000E-003	  2.72788E-001	  2.72829E-001	  0.00000E+000	  0.00000E+000
  4.00000E-003	  2.72624E-001	  2.72552E-001	  0.00000E+000	  0.00000E+000
  4.40000E-003	  2.73123E-001	  2.73398E-001	  0.00000E+000	  0.00000E+000
  4.80000E-003	  2.72618E-001	  2.72790E-001	  0.00000E+000	  0.00000E+000
  5.20000E-003	  2.73039E-001	  2.73032E-001	  0.00000E+000	  0.00000E+000
  5.60000E-003	  2.72806E-001	  2.72888E-001	  0.00000E+000	  0.00000E+000
  6.00000E-003	  2.73050E-001	  2.72910E-001	  0.00000E+000	  0.00000E+000
  6.40000E-003	  2.72578E-001	  2.72544E-001	  0.00000E+000	  0.00000E+000
  7.20000E-003	  2.73049E-001	  2.73037E-001	  0.00000E+000	  0.00000E+000
  8.00000E-003	  2.72989E-001	  2.73047E-001	  0.00000E+000	  0.00000E+000
  8.80000E-003	  2.72793E-001	  2.73073E-001	  0.00000E+000	  0.00000E+000
  9.60000E-003	  2.72791E-001	  2.72665E-001	  0.00000E+000	  0.00000E+000
  1.04000E-002	  2.72798E-001	  2.72974E-001	  0.00000E+000	  0.00000E+000
  1.12000E-002	  2.72903E-001	  2.72697E-001	  0.00000E+000	  0.00000E+000
  1.20000E-002	  2.72800E-001	  2.72642E-001	  0.00000E+000	  0.00000E+000
  1.28000E-002	  2.72811E-001	  2.72791E-001	  0.00000E+000	  0.00000E+000
  1.44000E-002	  2.72579E-001	  2.72560E-001	  0.00000E+000	  0.00000E+000
  1.60000E-002	  2.72703E-001	  2.72745E-001	  0.00000E+000	  0.00000E+000
  1.76000E-002	  2.72531E-001	  2.72469E-001	  0.00000E+000	  0.00000E+000
  1.92000E-002	  2.72554E-001	  2.72576E-001	  0.00000E+000	  0.00000E+000
  2.08000E-002	  2.72644E-001	  2.72735E-001	  0.00000E+000	  0.00000E+000
  2.24000E-002	  2.72683E-001	  2.72651E-001	  0.00000E+000	  0.00000E+000
  2.40000E-002	  2.72404E-001	  2.72400E-001	  0.00000E+000	  0.00000E+000
  2.56000E-002	  2.72513E-001	  2.72528E-001	  0.00000E+000	  0.00000E+000
  2.88000E-002	  2.72614E-001	  2.72726E-001	  0.00000E+000	  0.00000E+000
  3.20000E-002	  2.72426E-001	  2.72487E-001	  0.00000E+000	  0.00000E+000
  3.52000E-002	  2.72357E-001	  2.72402E-001	  0.00000E+000	  0.00000E+000
  3.84000E-002	  2.72254E-001	  2.72355E-001	  0.00000E+000	  0.00000E+000
  4.16000E-002	  2.72250E-001	  2.72270E-001	  0.00000E+000	  0.00000E+000
  4.48000E-002	  2.72200E-001	  2.72183E-001	  0.00000E+000	  0.00000E+000
  4.80000E-002	  2.72236E-001	  2.72205E-001	  0.00000E+000	  0.00000E+000
  5.12000E-002	  2.72034E-001	  2.72058E-001	  0.00000E+000	  0.00000E+000
  5.76000E-002	  2.71972E-001	  2.71921E-001	  0.00000E+000	  0.00000E+000
  6.40000E-002	  2.71936E-001	  2.71924E-001	  0.00000E+000	  0.00000E+000
  7.04000E-002	  2.71832E-001	  2.71810E-001	  0.00000E+000	  0.00000E+000
  7.68000E-002	  2.71576E-001	  2.71504E-001	  0.00000E+000	  0.00000E+000
  8.32000E-002	  2.71542E-001	  2.71565E-001	  0.00000E+000	  0.00000E+000
  8.96000E-002	  2.71453E-001	  2.71445E-001	  0.00000E+000	  0.00000E+000
  9.60000E-002	  2.71383E-001	  2.71324E-001	  0.00000E+000	  0.00000E+000
  1.02400E-001	  2.71233E-001	  2.71215E-001	  0.00000E+000	  0.00000E+000
  1.15200E-001	  2.71111E-001	  2.71126E-001	  0.00000E+000	  0.00000E+000
  1.28000E-001	  2.70873E-001	  2.70884E-001	  0.00000E+000	  0.00000E+000
  1.40800E-001	  2.70595E-001	  2.70615E-001	  0.00000E+000	  0.00000E+000
  1.53600E-001	  2.70402E-001	  2.70401E-001	  0.00000E+000	  0.00000E+000
  1.66400E-001	  2.70227E-001	  2.70279E-001	  0.00000E+000	  0.00000E+000
  1.79200E-001	  2.70039E-001	  2.70102E-001	  0.00000E+000	  0.00000E+000
  1.92000E-001	  2.69856E-001	  2.69820E-001	  0.00000E+000	  0.00000E+000
  2.04800E-001	  2.69646E-001	  2.69660E-001	  0.00000E+000	  0.00000E+000
  2.30400E-001	  2.69276E-001	  2.69322E-001	  0.00000E+000	  0.00000E+000
  2.56000E-001	  2.68850E-001	  2.68933E-001	  0.00000E+000	  0.00000E+000
  2.81600E-001	  2.68470E-001	  2.68540E-001	  0.00000E+000	  0.00000E+000
  3.07200E-001	  2.68032E-001	  2.68050E-001	  0.00000E+000	  0.00000E+000
  3.32800E-001	  2.67640E-001	  2.67634E-001	  0.00000E+000	  0.00000E+000
  3.58400E-001	  2.67248E-001	  2.67258E-001	  0.00000E+000	  0.00000E+000
  3.84000E-001	  2.66883E-001	  2.66912E-001	  0.00000E+000	  0.00000E+000
  4.09600E-001	  2.66498E-001	  2.66521E-001	  0.00000E+000	  0.00000E+000
  4.60800E-001	  2.65691E-001	  2.65700E-001	  0.00000E+000	  0.00000E+000
  5.12000E-001	  2.64920E-001	  2.64954E-001	  0.00000E+000	  0.00000E+000
  5.63200E-001	  2.64143E-001	  2.64145E-001	  0.00000E+000	  0.00000E+000
  6.14400E-001	  2.63372E-001	  2.63415E-001	  0.00000E+000	  0.00000E+000
  6.65600E-001	  2.62584E-001	  2.62627E-001	  0.00000E+000	  0.00000E+000
  7.16800E-001	  2.61825E-001	  2.61886E-001	  0.00000E+000	  0.00000E+000
  7.68000E-001	  2.61059E-001	  2.61095E-001	  0.00000E+000	  0.00000E+000
  8.19200E-001	  2.60366E-001	  2.60411E-001	  0.00000E+000	  0.00000E+000
  9.21600E-001	  2.58842E-001	  2.58909E-001	  0.00000E+000	  0.00000E+000
  1.02400E+000	  2.57368E-001	  2.57438E-001	  0.00000E+000	  0.00000E+000
  1.12640E+000	  2.55887E-001	  2.55956E-001	  0.00000E+000	  0.00000E+000
  1.22880E+000	  2.54417E-001	  2.54504E-001	  0.00000E+000	  0.00000E+000
  1.33120E+000	  2.52951E-001	  2.53036E-001	  0.00000E+000	  0.00000E+000
  1.43360E+000	  2.51495E-001	  2.51597E-001	  0.00000E+000	  0.00000E+000
  1.53600E+000	  2.50089E-001	  2.50230E-001	  0.00000E+000	  0.00000E+000
  1.63840E+000	  2.48589E-001	  2.48724E-001	  0.00000E+000	  0.00000E+000
  1.84320E+000	  2.45780E-001	  2.45927E-001	  0.00000E+000	  0.00000E+000
  2.04800E+000	  2.43012E-001	  2.43197E-001	  0.00000E+000	  0.00000E+000
  2.25280E+000	  2.40289E-001	  2.40499E-001	  0.00000E+000	  0.00000E+000
  2.45760E+000	  2.37640E-001	  2.37880E-001	  0.00000E+000	  0.00000E+000
  2.66240E+000	  2.34980E-001	  2.35209E-001	  0.00000E+000	  0.00000E+000
  2.86720E+000	  2.32419E-001	  2.32676E-001	  0.00000E+000	  0.00000E+000
  3.07200E+000	  2.29875E-001	  2.30166E-001	  0.00000E+000	  0.00000E+000
  3.27680E+000	  2.27395E-001	  2.27717E-001	  0.00000E+000	  0.00000E+000
  3.68640E+000	  2.22566E-001	  2.22929E-001	  0.00000E+000	  0.00000E+000
  4.09600E+000	  2.17879E-001	  2.18315E-001	  0.00000E+000	  0.00000E+000
  4.50560E+000	  2.13349E-001	  2.13839E-001	  0.00000E+000	  0.00000E+000
  4.91520E+000	  2.08980E-001	  2.09531E-001	  0.00000E+000	  0.00000E+000
  5.32480E+000	  2.04689E-001	  2.05323E-001	  0.00000E+000	  0.00000E+000
  5.73440E+000	  2.00435E-001	  2.01137E-001	  0.00000E+000	  0.00000E+000
  6.14400E+000	  1.96304E-001	  1.97063E-001	  0.00000E+000	  0.00000E+000
  6.55360E+000	  1.92311E-001	  1.93150E-001	  0.00000E+000	  0.00000E+000
  7.37280E+000	  1.84501E-001	  1.85422E-001	  0.00000E+000	  0.00000E+000
  8.19200E+000	  1.77005E-001	  1.77982E-001	  0.00000E+000	  0.00000E+000
  9.01120E+000	  1.69763E-001	  1.70812E-001	  0.00000E+000	  0.00000E+000
  9.83040E+000	  1.62868E-001	  1.64003E-001	  0.00000E+000	  0.00000E+000
  1.06496E+001	  1.56386E-001	  1.57672E-001	  0.00000E+000	  0.00000E+000
  1.14688E+001	  1.50420E-001	  1.51825E-001	  0.00000E+000	  0.00000E+000
  1.22880E+001	  1.44598E-001	  1.46101E-001	  0.00000E+000	  0.00000E+000
  1.31072E+001	  1.38846E-001	  1.40380E-001	  0.00000E+000	  0.00000E+000
  1.47456E+001	  1.27904E-001	  1.29492E-001	  0.00000E+000	  0.00000E+000
  1.63840E+001	  1.17936E-001	  1.19573E-001	  0.00000E+000	  0.00000E+000
  1.80224E+001	  1.08088E-001	  1.09716E-001	  0.00000E+000	  0.00000E+000
  1.96608E+001	  9.85703E-002	  1.00012E-001	  0.00000E+000	  0.00000E+000
  2.12992E+001	  8.96048E-002	  9.08719E-002	  0.00000E+000	  0.00000E+000
  2.29376E+001	  8.13175E-002	  8.24689E-002	  0.00000E+000	  0.00000E+000
  2.45760E+001	  7.38175E-002	  7.48632E-002	  0.00000E+000	  0.00000E+000
  2.62144E+001	  6.74246E-002	  6.83616E-002	  0.00000E+000	  0.00000E+000
  2.94912E+001	  5.57629E-002	  5.65147E-002	  0.00000E+000	  0.00000E+000
  3.27680E+001	  4.66173E-002	  4.70328E-002	  0.00000E+000	  0.00000E+000
  3.60448E+001	  4.01735E-002	  4.04024E-002	  0.00000E+000	  0.00000E+000
  3.93216E+001	  3.52690E-002	  3.53116E-002	  0.00000E+000	  0.00000E+000
  4.25984E+001	  3.08554E-002	  3.08290E-002	  0.00000E+000	  0.00000E+000
  4.58752E+001	  2.60004E-002	  2.57857E-002	  0.00000E+000	  0.00000E+000
  4.91520E+001	  2.15913E-002	  2.11951E-002	  0.00000E+000	  0.00000E+000
  5.24288E+001	  1.87561E-002	  1.85130E-002	  0.00000E+000	  0.00000E+000
  5.89824E+001	  1.55894E-002	  1.53128E-002	  0.00000E+000	  0.00000E+000
  6.55360E+001	  1.50247E-002	  1.44250E-002	  0.00000E+000	  0.00000E+000
  7.20896E+001	  1.30298E-002	  1.24805E-002	  0.00000E+000	  0.00000E+000
  7.86432E+001	  1.02319E-002	  9.80144E-003	  0.00000E+000	  0.00000E+000
  8.51968E+001	  7.30191E-003	  7.14481E-003	  0.00000E+000	  0.00000E+000
  9.17504E+001	  6.16812E-003	  6.98356E-003	  0.00000E+000	  0.00000E+000
  9.83040E+001	  2.85902E-003	  4.89169E-003	  0.00000E+000	  0.00000E+000
  1.04858E+002	  2.41602E-003	  4.76104E-003	  0.00000E+000	  0.00000E+000
  1.17965E+002	  2.77599E-005	  3.50157E-003	  0.00000E+000	  0.00000E+000
  1.31072E+002	 -3.09295E-004	  4.13749E-003	  0.00000E+000	  0.00000E+000
  1.44179E+002	  1.39252E-003	  6.75696E-003	  0.00000E+000	  0.00000E+000
  1.57286E+002	  3.45257E-003	  9.17356E-003	  0.00000E+000	  0.00000E+000
  1.70394E+002	  5.55014E-003	  1.07722E-002	  0.00000E+000	  0.00000E+000
  1.83501E+002	  5.53569E-003	  8.34240E-003	  0.00000E+000	  0.00000E+000
  1.96608E+002	  6.86797E-003	  9.09972E-003	  0.00000E+000	  0.00000E+000
  2.09715E+002	  2.23092E-003	  5.63311E-003	  0.00000E+000	  0.00000E+000
  2.35930E+002	 -2.39936E-003	  1.72114E-003	  0.00000E+000	  0.00000E+000
  2.62144E+002	 -4.33035E-003	 -1.69552E-003	  0.00000E+000	  0.00000E+000
  2.88358E+002	 -6.83144E-004	  1.80906E-003	  0.00000E+000	  0.00000E+000
  3.14573E+002	 -6.08214E-003	 -4.37886E-003	  0.00000E+000	  0.00000E+000
  3.40787E+002	 -1.37695E-002	 -1.45888E-002	  0.00000E+000	  0.00000E+000
  3.67002E+002	 -3.41677E-003	 -7.02775E-003	  0.00000E+000	  0.00000E+000
  3.93216E+002	  3.56841E-003	  1.73013E-003	  0.00000E+000	  0.00000E+000
  4.19430E+002	  1.32055E-003	  1.03714E-003	  0.00000E+000	  0.00000E+000
  4.71859E+002	 -8.10734E-003	 -9.72853E-003	  0.00000E+000	  0.00000E+000
  5.24288E+002	 -2.63320E-003	 -5.35650E-003	  0.00000E+000	  0.00000E+000
  5.76717E+002	  7.24497E-003	  5.33404E-003	  0.00000E+000	  0.00000E+000
  6.29146E+002	 -3.44312E-003	 -6.15865E-003	  0.00000E+000	  0.00000E+000
  6.81574E+002	  3.28144E-003	  7.94962E-004	  0.00000E+000	  0.00000E+000
  7.34003E+002	 -2.86487E-003	 -6.21777E-003	  0.00000E+000	  0.00000E+000
  7.86432E+002	  5.49980E-004	  1.30896E-004	  0.00000E+000	  0.00000E+000
  8.38861E+002	 -1.66447E-003	  5.71738E-004	  0.00000E+000	  0.00000E+000
  9.43718E+002	 -1.20289E-003	 -1.50541E-003	  0.00000E+000	  0.00000E+000
  1.04858E+003	 -1.17282E-003	  1.88211E-003	  0.00000E+000	  0.00000E+000
  1.15343E+003	 -2.56240E-003	 -1.64910E-003	  0.00000E+000	  0.00000E+000
  1.25829E+003	 -5.07093E-003	 -7.02950E-003	  0.00000E+000	  0.00000E+000
  1.36315E+003	  1.76880E-003	  1.25948E-003	  0.00000E+000	  0.00000E+000
  1.46801E+003	  7.89102E-003	  8.30605E-003	  0.00000E+000	  0.00000E+000
  1.57286E+003	  1.16161E-002	  8.76073E-003	  0.00000E+000	  0.00000E+000
  1.67772E+003	  4.46643E-004	 -5.38036E-004	  0.00000E+000	  0.00000E+000
  1.88744E+003	 -4.73838E-003	 -4.29205E-003	  0.00000E+000	  0.00000E+000
  2.09715E+003	 -6.00328E-003	 -6.92457E-003	  0.00000E+000	  0.00000E+000
  2.30687E+003	 -2.15290E-003	 -3.66481E-004	  0.00000E+000	  0.00000E+000
  2.51658E+003	 -8.08258E-003	 -8.87390E-003	  0.00000E+000	  0.00000E+000
  2.72630E+003	 -4.15408E-003	 -4.18690E-003	  0.00000E+000	  0.00000E+000
  2.93601E+003	  1.28546E-003	  5.73177E-004	  0.00000E+000	  0.00000E+000
  3.14573E+003	 -1.62804E-003	 -1.09538E-004	  0.00000E+000	  0.00000E+000
  3.35544E+003	  2.62536E-003	  2.69420E-003	  0.00000E+000	  0.00000E+000
  3.77487E+003	  1.11162E-003	  2.47727E-003	  0.00000E+000	  0.00000E+000
  4.19430E+003	  1.32093E-003	  2.01796E-003	  0.00000E+000	  0.00000E+000
  4.61373E+003	  9.41170E-004	 -1.83522E-004	  0.00000E+000	  0.00000E+000
  5.03317E+003	 -4.72227E-003	 -3.10954E-003	  0.00000E+000	  0.00000E+000
  5.45260E+003	 -3.33610E-003	 -1.91816E-003	  0.00000E+000	  0.00000E+000
  5.87203E+003	  3.19632E-003	  2.79019E-003	  0.00000E+000	  0.00000E+000

"Count Rate"
       0.14063	     950.43555	     787.54718	       0.00000	       0.00000
       0.28125	    1007.30219	     968.25391	       0.00000	       0.00000
       0.42188	     861.83417	     825.30194	       0.00000	       0.00000
       0.56250	    1079.22241	     889.53186	       0.00000	       0.00000
       0.70313	     625.98083	     428.18784	       0.00000	       0.00000
       0.84375	     772.83478	     655.91028	       0.00000	       0.00000
       0.98438	     953.10083	     814.41333	       0.00000	       0.00000
       1.12500	     535.17615	     442.39560	       0.00000	       0.00000
       1.26563	    1153.89319	     928.88580	       0.00000	       0.00000
       1.40625	     806.57379	     645.36279	       0.00000	       0.00000
       1.54688	    1036.69141	     923.44147	       0.00000	       0.00000
       1.68750	     944.67853	     951.48743	       0.00000	       0.00000
       1.82813	    1186.75793	    1048.25525	       0.00000	       0.00000
       1.96875	    1032.83923	     971.94977	       0.00000	       0.00000
       2.10938	    1004.55164	     694.26202	       0.00000	       0.00000
       2.25000	    1145.03735	     860.58325	       0.00000	       0.00000
       2.39063	     776.23926	     563.99683	       0.00000	       0.00000
       2.53125	    1382.26953	    1260.67542	       0.00000	       0.00000
       2.67188	     937.69189	     695.22150	       0.00000	       0.00000
       2.81250	     710.99292	     521.48724	       0.00000	       0.00000
       2.95313	    1038.24805	     828.34393	       0.00000	       0.00000
       3.09375	     890.86096	     841.82672	       0.00000	       0.00000
       3.23438	     870.48395	     698.24927	       0.00000	       0.00000
       3.37500	     718.37048	     693.83557	       0.00000	       0.00000
       3.51563	    1261.47852	    1078.61829	       0.00000	       0.00000
       3.65625	     865.53717	     675.33490	       0.00000	       0.00000
       3.79688	    1053.96960	     789.84290	       0.00000	       0.00000
       3.93750	     845.73584	     686.80634	       0.00000	       0.00000
       4.07813	     980.46448	     860.59039	       0.00000	       0.00000
       4.21875	    1411.38159	    1024.97131	       0.00000	       0.00000
       4.35938	    1013.25824	     800.95184	       0.00000	       0.00000
       4.50000	    1150.14050	    1029.97498	       0.00000	       0.00000
       4.64063	    1011.63062	     746.03973	       0.00000	       0.00000
       4.78125	    1042.71863	     822.25281	       0.00000	       0.00000
       4.92188	    1168.37097	    1026.35010	       0.00000	       0.00000
       5.06250	    1523.11060	    1308.19568	       0.00000	       0.00000
       5.20313	    1179.85669	     973.77637	       0.00000	       0.00000
       5.34375	    1151.66858	    1018.78070	       0.00000	       0.00000
       5.48438	    1887.06128	    1322.56702	       0.00000	       0.00000
       5.62500	     892.28955	     843.25531	       0.00000	       0.00000
       5.76563	     959.34119	     860.08575	       0.00000	       0.00000
       5.90625	     820.77448	     622.99573	       0.00000	       0.00000
       6.04688	    1230.09912	     961.66528	       0.00000	       0.00000
       6.18750	     873.75336	     726.14600	       0.00000	       0.00000
       6.32813	    1279.70911	    1014.15375	       0.00000	       0.00000
       6.46875	    1163.45264	    1361.51575	       0.00000	       0.00000
       6.60938	     959.90979	     872.18970	       0.00000	       0.00000
