ALV-7004 or ALV-7004/FAST
Date :	"13-Nov-18"
Time :	"10:35:56"
Samplename : 	""
SampMemo(0) : 	""
SampMemo(1) : 	""
SampMemo(2) : 	""
SampMemo(3) : 	""
SampMemo(4) : 	""
SampMemo(5) : 	""
SampMemo(6) : 	""
SampMemo(7) : 	""
SampMemo(8) : 	""
SampMemo(9) : 	""
Temperature [K] :	     298.56772
Viscosity [cp]  :	       0.89000
Refractive Index:	       1.33200
Wavelength [nm] :	     632.80000
Angle [°]       :	      35.00000
Duration [s]    :	        30
FloatDur [ms]   :	        30022
Stop TP [ms]   :	    499034
Runs            :	         1
Mode            :	"C-CH0/1a1/0 "
MeanCR0 [kHz]   :	      56.71051
MeanCR1 [kHz]   :	      49.24714
MeanCR2 [kHz]   :	       0.00000
MeanCR3 [kHz]   :	       0.00000

"Correlation"
  3.12500E-006	 -4.48327E-002	 -1.02143E-001	  0.00000E+000	  0.00000E+000
  6.25000E-006	 -2.19087E-002	  4.83603E-003	  0.00000E+000	  0.00000E+000
  9.37500E-006	 -2.57293E-002	 -9.45014E-002	  0.00000E+000	  0.00000E+000
  1.25000E-005	 -4.29223E-002	 -4.86533E-002	  0.00000E+000	  0.00000E+000
  1.56250E-005	  2.58497E-002	  7.74288E-002	  0.00000E+000	  0.00000E+000
  1.87500E-005	 -1.80880E-002	 -7.15774E-002	  0.00000E+000	  0.00000E+000
  2.18750E-005	  4.83603E-003	  4.83603E-003	  0.00000E+000	  0.00000E+000
  2.50000E-005	  4.49531E-002	  6.59667E-002	  0.00000E+000	  0.00000E+000
  2.81250E-005	  9.08011E-002	  8.12494E-002	  0.00000E+000	  0.00000E+000
  3.12500E-005	  1.09904E-001	  1.99690E-001	  0.00000E+000	  0.00000E+000
  3.43750E-005	 -6.20257E-002	 -3.33707E-002	  0.00000E+000	  0.00000E+000
  3.75000E-005	 -3.71913E-002	 -6.39360E-002	  0.00000E+000	  0.00000E+000
  4.06250E-005	  2.39394E-002	  2.39394E-002	  0.00000E+000	  0.00000E+000
  4.37500E-005	  3.15807E-002	  3.15807E-002	  0.00000E+000	  0.00000E+000
  4.68750E-005	 -1.42673E-002	  2.77600E-002	  0.00000E+000	  0.00000E+000
  5.00000E-005	 -2.09535E-002	  2.01187E-002	  0.00000E+000	  0.00000E+000
  5.62500E-005	 -3.62362E-002	 -6.58464E-002	  0.00000E+000	  0.00000E+000
  6.25000E-005	  1.72532E-002	  2.77600E-002	  0.00000E+000	  0.00000E+000
  6.87500E-005	 -4.19672E-002	 -4.10120E-002	  0.00000E+000	  0.00000E+000
  7.50000E-005	 -2.95500E-002	 -4.48327E-002	  0.00000E+000	  0.00000E+000
  8.12500E-005	 -6.62598E-003	 -1.99983E-002	  0.00000E+000	  0.00000E+000
  8.75000E-005	 -3.76048E-003	 -2.95500E-002	  0.00000E+000	  0.00000E+000
  9.37500E-005	 -4.10120E-002	 -7.92187E-002	  0.00000E+000	  0.00000E+000
  1.00000E-004	  2.77600E-002	  1.05670E-002	  0.00000E+000	  0.00000E+000
  1.12500E-004	  2.92569E-003	 -1.23570E-002	  0.00000E+000	  0.00000E+000
  1.25000E-004	  3.30135E-002	  2.96704E-002	  0.00000E+000	  0.00000E+000
  1.37500E-004	  1.00894E-002	  2.20290E-002	  0.00000E+000	  0.00000E+000
  1.50000E-004	  1.24774E-002	  2.48945E-002	  0.00000E+000	  0.00000E+000
  1.62500E-004	 -9.96907E-003	 -5.67081E-003	  0.00000E+000	  0.00000E+000
  1.75000E-004	 -4.05344E-002	 -1.85014E-003	  0.00000E+000	  0.00000E+000
  1.87500E-004	  2.68049E-002	  5.79119E-003	  0.00000E+000	  0.00000E+000
  2.00000E-004	  2.84764E-002	  2.25066E-002	  0.00000E+000	  0.00000E+000
  2.25000E-004	 -8.53632E-003	 -3.28931E-002	  0.00000E+000	  0.00000E+000
  2.50000E-004	  1.39101E-002	  2.10739E-002	  0.00000E+000	  0.00000E+000
  2.75000E-004	 -1.80880E-002	 -2.47742E-002	  0.00000E+000	  0.00000E+000
  3.00000E-004	 -4.71565E-003	 -1.90432E-002	  0.00000E+000	  0.00000E+000
  3.25000E-004	  3.40327E-003	  2.92568E-003	  0.00000E+000	  0.00000E+000
  3.50000E-004	 -4.47686E-003	 -2.32774E-003	  0.00000E+000	  0.00000E+000
  3.75000E-004	  7.70152E-003	  2.15514E-002	  0.00000E+000	  0.00000E+000
  4.00000E-004	 -3.99929E-003	  9.85063E-003	  0.00000E+000	  0.00000E+000
  4.50000E-004	  1.37352E-003	 -3.99929E-003	  0.00000E+000	  0.00000E+000
  5.00000E-004	  5.55238E-003	  1.70144E-002	  0.00000E+000	  0.00000E+000
  5.50000E-004	 -1.96956E-003	  1.41489E-002	  0.00000E+000	  0.00000E+000
  6.00000E-004	 -6.38721E-003	 -2.59681E-002	  0.00000E+000	  0.00000E+000
  6.50000E-004	 -1.73077E-003	 -5.43204E-003	  0.00000E+000	  0.00000E+000
  7.00000E-004	 -2.32775E-003	 -1.78492E-002	  0.00000E+000	  0.00000E+000
  7.50000E-004	  7.58211E-003	  1.84471E-002	  0.00000E+000	  0.00000E+000
  8.00000E-004	  5.91054E-003	  1.48652E-002	  0.00000E+000	  0.00000E+000
  9.00000E-004	 -7.28271E-003	 -4.35751E-003	  0.00000E+000	  0.00000E+000
  1.00000E-003	  1.25410E-003	 -4.83509E-003	  0.00000E+000	  0.00000E+000
  1.10000E-003	 -6.20814E-003	 -1.33122E-002	  0.00000E+000	  0.00000E+000
  1.20000E-003	 -5.96534E-004	  1.37350E-003	  0.00000E+000	  0.00000E+000
  1.30000E-003	 -1.19351E-003	  8.95914E-004	  0.00000E+000	  0.00000E+000
  1.40000E-003	 -5.25297E-003	  7.82088E-003	  0.00000E+000	  0.00000E+000
  1.50000E-003	 -1.02676E-002	  2.92564E-003	  0.00000E+000	  0.00000E+000
  1.60000E-003	 -4.29757E-003	  7.34324E-003	  0.00000E+000	  0.00000E+000
  1.80000E-003	 -4.41696E-003	 -3.52179E-003	  0.00000E+000	  0.00000E+000
  2.00000E-003	  5.22426E-003	  4.95532E-003	  0.00000E+000	  0.00000E+000
  2.20000E-003	 -9.84331E-004	  2.98881E-004	  0.00000E+000	  0.00000E+000
  2.40000E-003	  5.10486E-003	  2.26891E-003	  0.00000E+000	  0.00000E+000
  2.60000E-003	 -5.67062E-003	 -1.38495E-002	  0.00000E+000	  0.00000E+000
  2.80000E-003	 -4.47050E-004	  1.85103E-003	  0.00000E+000	  0.00000E+000
  3.00000E-003	 -4.53635E-003	 -2.17894E-002	  0.00000E+000	  0.00000E+000
  3.20000E-003	 -1.64048E-003	 -5.58021E-003	  0.00000E+000	  0.00000E+000
  3.60000E-003	 -2.46133E-003	 -5.04293E-003	  0.00000E+000	  0.00000E+000
  4.00000E-003	  1.10562E-003	  2.06113E-003	  0.00000E+000	  0.00000E+000
  4.40000E-003	 -8.94552E-004	 -3.55107E-003	  0.00000E+000	  0.00000E+000
  4.80000E-003	  1.23965E-003	 -8.65525E-003	  0.00000E+000	  0.00000E+000
  5.20000E-003	  1.70231E-003	  3.13511E-003	  0.00000E+000	  0.00000E+000
  5.60000E-003	 -4.56598E-003	 -3.99880E-003	  0.00000E+000	  0.00000E+000
  6.00000E-003	  2.40376E-003	  5.97076E-003	  0.00000E+000	  0.00000E+000
  6.40000E-003	 -2.85671E-003	 -3.53577E-003	  0.00000E+000	  0.00000E+000
  7.20000E-003	 -2.01347E-003	 -4.65511E-003	  0.00000E+000	  0.00000E+000
  8.00000E-003	  3.21873E-004	 -3.67009E-003	  0.00000E+000	  0.00000E+000
  8.80000E-003	  1.68000E-003	 -3.41927E-004	  0.00000E+000	  0.00000E+000
  9.60000E-003	 -2.16305E-003	 -5.02822E-003	  0.00000E+000	  0.00000E+000
  1.04000E-002	  6.67971E-003	  3.50859E-003	  0.00000E+000	  0.00000E+000
  1.12000E-002	  5.74663E-003	  5.76160E-003	  0.00000E+000	  0.00000E+000
  1.20000E-002	  3.14977E-003	  4.92583E-003	  0.00000E+000	  0.00000E+000
  1.28000E-002	  2.85895E-003	  3.17237E-003	  0.00000E+000	  0.00000E+000
  1.44000E-002	  8.21757E-004	  1.33665E-003	  0.00000E+000	  0.00000E+000
  1.60000E-002	 -2.87952E-003	 -1.25275E-003	  0.00000E+000	  0.00000E+000
  1.76000E-002	  2.69551E-004	  3.03804E-003	  0.00000E+000	  0.00000E+000
  1.92000E-002	  1.50082E-003	  2.19481E-003	  0.00000E+000	  0.00000E+000
  2.08000E-002	 -1.70828E-003	 -5.71517E-003	  0.00000E+000	  0.00000E+000
  2.24000E-002	 -5.92678E-004	 -1.84227E-003	  0.00000E+000	  0.00000E+000
  2.40000E-002	 -2.14885E-003	 -1.96225E-003	  0.00000E+000	  0.00000E+000
  2.56000E-002	 -4.91525E-004	 -2.17078E-003	  0.00000E+000	  0.00000E+000
  2.88000E-002	 -1.58068E-003	 -8.49963E-004	  0.00000E+000	  0.00000E+000
  3.20000E-002	 -7.01994E-004	 -2.91327E-003	  0.00000E+000	  0.00000E+000
  3.52000E-002	 -1.36731E-004	  1.88868E-003	  0.00000E+000	  0.00000E+000
  3.84000E-002	 -1.69074E-003	 -1.61857E-003	  0.00000E+000	  0.00000E+000
  4.16000E-002	 -1.52810E-003	 -1.31262E-003	  0.00000E+000	  0.00000E+000
  4.48000E-002	  6.88482E-004	 -6.85206E-004	  0.00000E+000	  0.00000E+000
  4.80000E-002	 -3.49110E-004	 -1.43516E-003	  0.00000E+000	  0.00000E+000
  5.12000E-002	 -7.23649E-004	 -1.68696E-003	  0.00000E+000	  0.00000E+000
  5.76000E-002	  6.31389E-004	  5.00761E-004	  0.00000E+000	  0.00000E+000
  6.40000E-002	  3.48462E-004	  5.80391E-004	  0.00000E+000	  0.00000E+000
  7.04000E-002	  1.32057E-004	 -4.40070E-004	  0.00000E+000	  0.00000E+000
  7.68000E-002	 -1.47438E-004	 -1.03332E-003	  0.00000E+000	  0.00000E+000
  8.32000E-002	  3.64952E-004	  3.30994E-004	  0.00000E+000	  0.00000E+000
  8.96000E-002	 -6.45251E-004	 -4.93584E-004	  0.00000E+000	  0.00000E+000
  9.60000E-002	  8.01495E-004	  8.10092E-005	  0.00000E+000	  0.00000E+000
  1.02400E-001	 -1.16800E-004	 -1.29100E-003	  0.00000E+000	  0.00000E+000
  1.15200E-001	  4.63084E-005	  7.37802E-004	  0.00000E+000	  0.00000E+000
  1.28000E-001	  1.12134E-003	  2.50356E-003	  0.00000E+000	  0.00000E+000
  1.40800E-001	  1.65112E-004	 -4.85078E-004	  0.00000E+000	  0.00000E+000
  1.53600E-001	 -3.87863E-004	 -1.17941E-003	  0.00000E+000	  0.00000E+000
  1.66400E-001	 -8.49420E-004	 -1.23130E-003	  0.00000E+000	  0.00000E+000
  1.79200E-001	 -5.18799E-004	 -6.44939E-005	  0.00000E+000	  0.00000E+000
  1.92000E-001	 -4.64697E-004	 -1.20716E-003	  0.00000E+000	  0.00000E+000
  2.04800E-001	 -4.93608E-004	 -7.09780E-005	  0.00000E+000	  0.00000E+000
  2.30400E-001	 -1.75949E-004	 -2.95903E-004	  0.00000E+000	  0.00000E+000
  2.56000E-001	 -1.15383E-003	 -1.49174E-003	  0.00000E+000	  0.00000E+000
  2.81600E-001	 -3.86211E-004	 -1.00191E-003	  0.00000E+000	  0.00000E+000
  3.07200E-001	  1.47069E-004	  2.77076E-004	  0.00000E+000	  0.00000E+000
  3.32800E-001	 -6.65227E-004	 -9.56423E-004	  0.00000E+000	  0.00000E+000
  3.58400E-001	 -5.65359E-004	 -1.13633E-003	  0.00000E+000	  0.00000E+000
  3.84000E-001	 -6.47977E-004	 -9.08608E-004	  0.00000E+000	  0.00000E+000
  4.09600E-001	  3.02773E-004	 -6.10511E-005	  0.00000E+000	  0.00000E+000
  4.60800E-001	 -5.86449E-005	 -9.07697E-005	  0.00000E+000	  0.00000E+000
  5.12000E-001	 -1.11523E-004	  2.96227E-004	  0.00000E+000	  0.00000E+000
  5.63200E-001	  1.25244E-004	 -2.53313E-004	  0.00000E+000	  0.00000E+000
  6.14400E-001	  6.68338E-004	  1.00517E-003	  0.00000E+000	  0.00000E+000
  6.65600E-001	  4.31123E-004	  2.34549E-004	  0.00000E+000	  0.00000E+000
  7.16800E-001	 -4.08680E-004	 -2.49115E-004	  0.00000E+000	  0.00000E+000
  7.68000E-001	  2.24046E-004	  3.29839E-004	  0.00000E+000	  0.00000E+000
  8.19200E-001	  2.07991E-004	  1.39069E-004	  0.00000E+000	  0.00000E+000
  9.21600E-001	 -1.45807E-004	 -1.31758E-005	  0.00000E+000	  0.00000E+000
  1.02400E+000	  5.20685E-006	 -1.16279E-004	  0.00000E+000	  0.00000E+000
  1.12640E+000	  2.55401E-004	  3.30320E-004	  0.00000E+000	  0.00000E+000
  1.22880E+000	 -2.05320E-004	 -8.94839E-004	  0.00000E+000	  0.00000E+000
  1.33120E+000	  1.33491E-004	  2.64188E-004	  0.00000E+000	  0.00000E+000
  1.43360E+000	 -7.05558E-005	  4.89454E-005	  0.00000E+000	  0.00000E+000
  1.53600E+000	  3.86860E-005	 -1.86601E-004	  0.00000E+000	  0.00000E+000
  1.63840E+000	  1.82141E-004	  3.78747E-004	  0.00000E+000	  0.00000E+000
  1.84320E+000	  1.36057E-004	  1.14464E-004	  0.00000E+000	  0.00000E+000
  2.04800E+000	 -8.16212E-005	 -1.80699E-004	  0.00000E+000	  0.00000E+000
  2.25280E+000	 -1.72205E-004	  2.90888E-004	  0.00000E+000	  0.00000E+000
  2.45760E+000	 -1.41475E-005	  1.86204E-004	  0.00000E+000	  0.00000E+000
  2.66240E+000	  2.13029E-004	  9.17779E-005	  0.00000E+000	  0.00000E+000
  2.86720E+000	 -9.27147E-005	 -4.16381E-004	  0.00000E+000	  0.00000E+000
  3.07200E+000	  7.31967E-005	 -1.27830E-005	  0.00000E+000	  0.00000E+000
  3.27680E+000	  7.89173E-005	  1.02725E-004	  0.00000E+000	  0.00000E+000
  3.68640E+000	 -9.00289E-005	  7.42710E-005	  0.00000E+000	  0.00000E+000
  4.09600E+000	 -1.63164E-005	  4.49231E-006	  0.00000E+000	  0.00000E+000
  4.50560E+000	  2.48366E-005	 -4.52467E-005	  0.00000E+000	  0.00000E+000
  4.91520E+000	  1.86979E-004	  2.39790E-004	  0.00000E+000	  0.00000E+000
  5.32480E+000	 -1.41941E-005	  1.39325E-004	  0.00000E+000	  0.00000E+000
  5.73440E+000	 -4.59516E-005	 -1.17811E-004	  0.00000E+000	  0.00000E+000
  6.14400E+000	  1.40635E-005	 -5.63497E-005	  0.00000E+000	  0.00000E+000
  6.55360E+000	 -4.42376E-005	 -8.93091E-005	  0.00000E+000	  0.00000E+000
  7.37280E+000	 -1.38035E-004	 -7.14946E-005	  0.00000E+000	  0.00000E+000
  8.19200E+000	 -8.80081E-006	  4.84683E-005	  0.00000E+000	  0.00000E+000
  9.01120E+000	  5.77033E-005	  1.17361E-004	  0.00000E+000	  0.00000E+000
  9.83040E+000	 -4.17236E-005	  3.77432E-005	  0.00000E+000	  0.00000E+000
  1.06496E+001	  1.61920E-004	  1.67546E-004	  0.00000E+000	  0.00000E+000
  1.14688E+001	 -1.57237E-005	 -7.28550E-005	  0.00000E+000	  0.00000E+000
  1.22880E+001	  3.45133E-005	  7.67263E-005	  0.00000E+000	  0.00000E+000
  1.31072E+001	  1.59126E-004	  1.83227E-004	  0.00000E+000	  0.00000E+000
  1.47456E+001	  1.08045E-004	  1.37750E-004	  0.00000E+000	  0.00000E+000
  1.63840E+001	  7.80272E-005	  2.60055E-005	  0.00000E+000	  0.00000E+000
  1.80224E+001	 -6.20574E-005	  1.61857E-005	  0.00000E+000	  0.00000E+000
  1.96608E+001	 -2.65425E-005	  1.09080E-005	  0.00000E+000	  0.00000E+000
  2.12992E+001	  5.96923E-006	 -4.29105E-005	  0.00000E+000	  0.00000E+000
  2.29376E+001	 -3.94598E-005	 -1.23609E-005	  0.00000E+000	  0.00000E+000
  2.45760E+001	 -4.56473E-005	  3.33629E-005	  0.00000E+000	  0.00000E+000
  2.62144E+001	 -7.14210E-005	  2.52133E-005	  0.00000E+000	  0.00000E+000
  2.94912E+001	 -1.20878E-004	 -1.08045E-004	  0.00000E+000	  0.00000E+000
  3.27680E+001	  1.80784E-005	 -1.57828E-005	  0.00000E+000	  0.00000E+000
  3.60448E+001	  1.95285E-005	  4.25095E-006	  0.00000E+000	  0.00000E+000
  3.93216E+001	  1.50714E-005	  4.08580E-005	  0.00000E+000	  0.00000E+000
  4.25984E+001	 -4.09385E-005	 -1.75707E-005	  0.00000E+000	  0.00000E+000
  4.58752E+001	 -6.85511E-005	 -5.06734E-005	  0.00000E+000	  0.00000E+000
  4.91520E+001	  4.56026E-006	 -4.88278E-005	  0.00000E+000	  0.00000E+000
  5.24288E+001	  8.07389E-006	 -2.11262E-006	  0.00000E+000	  0.00000E+000
  5.89824E+001	  4.45569E-005	  6.11106E-005	  0.00000E+000	  0.00000E+000
  6.55360E+001	  5.78700E-006	  2.06573E-005	  0.00000E+000	  0.00000E+000
  7.20896E+001	  2.88720E-005	  3.78615E-005	  0.00000E+000	  0.00000E+000
  7.86432E+001	 -1.46669E-005	 -1.30893E-005	  0.00000E+000	  0.00000E+000
  8.51968E+001	 -2.45593E-005	 -4.23846E-005	  0.00000E+000	  0.00000E+000
  9.17504E+001	  3.36887E-006	  9.93119E-007	  0.00000E+000	  0.00000E+000
  9.83040E+001	 -4.02486E-008	 -2.98874E-006	  0.00000E+000	  0.00000E+000
  1.04858E+002	  1.36372E-005	  1.21384E-005	  0.00000E+000	  0.00000E+000
  1.17965E+002	  1.93408E-005	  6.95522E-006	  0.00000E+000	  0.00000E+000
  1.31072E+002	 -4.01754E-005	 -7.75162E-005	  0.00000E+000	  0.00000E+000
  1.44179E+002	 -1.80361E-006	 -8.65429E-006	  0.00000E+000	  0.00000E+000
  1.57286E+002	  1.09024E-005	  2.97937E-005	  0.00000E+000	  0.00000E+000
  1.70394E+002	 -1.73040E-005	 -4.83327E-005	  0.00000E+000	  0.00000E+000
  1.83501E+002	  1.12994E-006	  1.19140E-005	  0.00000E+000	  0.00000E+000
  1.96608E+002	  6.64600E-006	  3.25914E-005	  0.00000E+000	  0.00000E+000
  2.09715E+002	  1.77778E-005	  2.01573E-005	  0.00000E+000	  0.00000E+000
  2.35930E+002	 -2.14663E-006	  2.48606E-005	  0.00000E+000	  0.00000E+000
  2.62144E+002	  1.63063E-005	  2.41556E-005	  0.00000E+000	  0.00000E+000
  2.88358E+002	 -1.10119E-006	 -2.06668E-005	  0.00000E+000	  0.00000E+000
  3.14573E+002	  2.20428E-005	  4.66272E-006	  0.00000E+000	  0.00000E+000
  3.40787E+002	 -1.22451E-005	 -1.19288E-005	  0.00000E+000	  0.00000E+000
  3.67002E+002	  6.16464E-006	  2.34920E-005	  0.00000E+000	  0.00000E+000
  3.93216E+002	  2.14808E-005	  4.57425E-005	  0.00000E+000	  0.00000E+000
  4.19430E+002	  3.17853E-005	  2.78206E-005	  0.00000E+000	  0.00000E+000
  4.71859E+002	  2.40464E-006	  8.85177E-006	  0.00000E+000	  0.00000E+000
  5.24288E+002	 -1.48597E-005	 -7.73897E-006	  0.00000E+000	  0.00000E+000
  5.76717E+002	  9.65310E-006	  9.70102E-006	  0.00000E+000	  0.00000E+000
  6.29146E+002	  3.09144E-006	  4.53443E-006	  0.00000E+000	  0.00000E+000
  6.81574E+002	 -3.31219E-006	 -9.38760E-007	  0.00000E+000	  0.00000E+000
  7.34003E+002	  1.60936E-005	  7.97411E-006	  0.00000E+000	  0.00000E+000
  7.86432E+002	  9.79718E-006	  7.81843E-006	  0.00000E+000	  0.00000E+000
  8.38861E+002	  1.04457E-005	  1.53642E-006	  0.00000E+000	  0.00000E+000
  9.43718E+002	  4.23083E-006	  7.28809E-006	  0.00000E+000	  0.00000E+000
  1.04858E+003	 -4.75648E-006	 -8.68056E-006	  0.00000E+000	  0.00000E+000
  1.15343E+003	  9.07196E-006	  1.89961E-006	  0.00000E+000	  0.00000E+000
  1.25829E+003	 -4.09787E-006	  1.48355E-006	  0.00000E+000	  0.00000E+000
  1.36315E+003	  3.66103E-006	 -1.31162E-006	  0.00000E+000	  0.00000E+000
  1.46801E+003	  4.15650E-006	  1.96288E-005	  0.00000E+000	  0.00000E+000
  1.57286E+003	 -4.00416E-006	 -1.26860E-005	  0.00000E+000	  0.00000E+000
  1.67772E+003	 -7.34698E-006	 -1.52896E-005	  0.00000E+000	  0.00000E+000
  1.88744E+003	 -3.04727E-006	 -2.63764E-006	  0.00000E+000	  0.00000E+000
  2.09715E+003	  2.50451E-006	 -7.08258E-006	  0.00000E+000	  0.00000E+000
  2.30687E+003	  5.27738E-006	  3.58643E-006	  0.00000E+000	  0.00000E+000
  2.51658E+003	  1.50614E-007	 -7.41479E-006	  0.00000E+000	  0.00000E+000
  2.72630E+003	  2.98569E-006	  4.24841E-006	  0.00000E+000	  0.00000E+000
  2.93601E+003	  8.67085E-006	  5.88612E-006	  0.00000E+000	  0.00000E+000
  3.14573E+003	  7.78059E-006	  4.03452E-006	  0.00000E+000	  0.00000E+000
  3.35544E+003	  4.03005E-006	 -2.01021E-006	  0.00000E+000	  0.00000E+000
  3.77487E+003	  9.54607E-006	  7.28582E-006	  0.00000E+000	  0.00000E+000
  4.19430E+003	  3.03240E-006	  6.21026E-007	  0.00000E+000	  0.00000E+000
  4.61373E+003	  3.46489E-006	  4.49557E-006	  0.00000E+000	  0.00000E+000
  5.03317E+003	 -4.64739E-007	 -3.74800E-006	  0.00000E+000	  0.00000E+000
  5.45260E+003	  4.33268E-006	  7.68219E-006	  0.00000E+000	  0.00000E+000
  5.87203E+003	  4.70217E-007	  8.42936E-006	  0.00000E+000	  0.00000E+000
  6.29146E+003	  1.81000E-006	  5.21691E-007	  0.00000E+000	  0.00000E+000
  6.71089E+003	  1.62240E-006	  4.58551E-006	  0.00000E+000	  0.00000E+000
  7.54975E+003	 -9.59743E-007	 -6.37929E-006	  0.00000E+000	  0.00000E+000
  8.38861E+003	  2.45792E-006	 -1.33522E-006	  0.00000E+000	  0.00000E+000
  9.22747E+003	  5.67521E-006	  9.15204E-006	  0.00000E+000	  0.00000E+000
  1.00663E+004	 -8.80008E-006	 -4.55080E-006	  0.00000E+000	  0.00000E+000
  1.09052E+004	 -1.04208E-005	 -6.69405E-006	  0.00000E+000	  0.00000E+000
  1.17441E+004	 -2.29712E-007	 -5.08288E-006	  0.00000E+000	  0.00000E+000
  1.25829E+004	  4.39392E-006	  1.20363E-006	  0.00000E+000	  0.00000E+000

"Count Rate"
       0.11719	      55.89008	      49.46780	       0.00000	       0.00000
       0.23438	      57.85173	      49.34839	       0.00000	       0.00000
       0.35156	      57.10971	      49.19487	       0.00000	       0.00000
       0.46875	      56.63210	      49.91983	       0.00000	       0.00000
       0.58594	      56.47858	      49.60426	       0.00000	       0.00000
       0.70313	      55.98390	      49.87718	       0.00000	       0.00000
       0.82031	      58.26112	      48.15434	       0.00000	       0.00000
       0.93750	      56.70033	      48.38462	       0.00000	       0.00000
       1.05469	      56.78562	      49.91983	       0.00000	       0.00000
       1.17188	      56.54681	      48.94753	       0.00000	       0.00000
       1.28906	      56.47005	      49.19487	       0.00000	       0.00000
       1.40625	      57.39970	      49.39956	       0.00000	       0.00000
       1.52344	      57.02443	      50.39745	       0.00000	       0.00000
       1.64063	      56.77709	      50.43156	       0.00000	       0.00000
